7/13/2016 8:48 AM
nDataPerSetPoint: 50
Calibrating RAF Probes  July 13, 2016 8:45AM
Reference(C), Heated 630393A(Ohm), Heated 630393B(Ohm), FastResp 3400(Ohm)
39.746077 	57.852261 	57.858169 	57.891556 
39.745930 	57.852234 	57.858142 	57.891535 
39.745783 	57.852206 	57.858111 	57.891507 
39.745623 	57.852176 	57.858078 	57.891473 
39.745465 	57.852140 	57.858041 	57.891456 
39.745315 	57.852108 	57.858010 	57.891430 
39.745162 	57.852080 	57.857982 	57.891398 
39.745027 	57.852059 	57.857962 	57.891370
39.744906 	57.852042 	57.857946 	57.891358 
39.744785 	57.852023 	57.857930 	57.891339 
39.744673 	57.851998 	57.857907 	57.891316 
39.744560 	57.851972 	57.857884 	57.891296 
39.744435 	57.851952 	57.857860 	57.891257 
39.744316 	57.851923 	57.857831 	57.891224 
39.744181 	57.851885 	57.857798 	57.891198 
39.744034 	57.851853 	57.857761 	57.891179 
39.743892 	57.851827 	57.857731 	57.891146 
39.743739 	57.851809 	57.857713 	57.891116 
39.743580 	57.851790 	57.857686 	57.891095 
39.743426 	57.851763 	57.857659 	57.891064 
39.743288 	57.851742 	57.857639 	57.891034 
39.743147 	57.851721 	57.857623 	57.891010 
39.743028 	57.851703 	57.857607 	57.890998 
39.742930 	57.851688 	57.857593 	57.890975 
39.742846 	57.851677 	57.857586 	57.890950 
39.742745 	57.851664 	57.857565 	57.890922 
39.742655 	57.851642 	57.857543 	57.890896
39.742551 	57.851618 	57.857522 	57.890872 
39.742473 	57.851607 	57.857504 	57.890845 
39.742412 	57.851589 	57.857489 	57.890826 
39.742367 	57.851578 	57.857488 	57.890807 
39.742332 	57.851572 	57.857480 	57.890800 
39.742297 	57.851562 	57.857469 	57.890787
39.742269 	57.851551 	57.857458 	57.890785 
39.742232 	57.851548 	57.857457 	57.890774 
39.742196 	57.851551 	57.857459 	57.890756 
39.742174 	57.851555 	57.857460 	57.890748 
39.742166 	57.851557 	57.857463 	57.890751 
39.742157 	57.851553 	57.857457 	57.890756 
39.742168 	57.851555 	57.857461 	57.890753 
39.742192 	57.851552 	57.857462 	57.890755 
39.742219 	57.851558 	57.857468 	57.890753 
39.742240 	57.851566 	57.857467 	57.890768 
39.742244 	57.851563 	57.857462 	57.890777 
39.742244 	57.851566 	57.857466 	57.890768 
39.742257 	57.851563 	57.857467 	57.890755 
39.742269 	57.851568 	57.857470 	57.890751 
39.742294 	57.851562 	57.857467 	57.890758 
39.742339 	57.851568 	57.857477 	57.890772 
39.742376 	57.851574 	57.857483 	57.890781 
29.746382 	55.885261 	55.890829 	55.920806 
29.746417 	55.885267 	55.890835 	55.920833 
29.746461 	55.885273 	55.890848 	55.920850 
29.746527 	55.885282 	55.890867 	55.920860 
29.746617 	55.885303 	55.890886 	55.920887 
29.746732 	55.885327 	55.890916 	55.920917 
29.746861 	55.885359 	55.890949 	55.920963 
29.747008 	55.885393 	55.890991 	55.921014 
29.747160 	55.885428 	55.891032 	55.921044 
29.747319 	55.885460 	55.891064 	55.921074 
29.747478 	55.885487 	55.891091 	55.921106 
29.747632 	55.885519 	55.891122 	55.921133 
29.747791 	55.885551 	55.891149 	55.921162 
29.747950 	55.885584 	55.891177 	55.921184 
29.748117 	55.885611 	55.891208 	55.921223 
29.748290 	55.885648 	55.891243 	55.921267 
29.748438 	55.885676 	55.891265 	55.921288 
29.748550 	55.885699 	55.891286 	55.921300 
29.748638 	55.885710 	55.891293 	55.921304 
29.748704 	55.885715 	55.891303 	55.921308 
29.748766 	55.885728 	55.891317 	55.921330 
29.748823 	55.885733 	55.891320 	55.921340 
29.748905 	55.885744 	55.891331 	55.921359 
29.749004 	55.885754 	55.891337 	55.921382 
29.749122 	55.885762 	55.891354 	55.921412 
29.749244 	55.885773 	55.891370 	55.921450 
29.749368 	55.885802 	55.891391 	55.921474 
29.749483 	55.885827 	55.891413 	55.921484 
29.749610 	55.885853 	55.891435 	55.921502 
29.749735 	55.885873 	55.891450 	55.921527 
29.749847 	55.885896 	55.891470 	55.921543 
29.749970 	55.885924 	55.891497 	55.921559 
29.750071 	55.885945 	55.891514 	55.921578
29.750147 	55.885965 	55.891522 	55.921584 
29.750197 	55.885968 	55.891527 	55.921575 
29.750218 	55.885972 	55.891531 	55.921573 
29.750226 	55.885975 	55.891528 	55.921566 
29.750239 	55.885975 	55.891527 	55.921555 
29.750241 	55.885973 	55.891519 	55.921554 
29.750233 	55.885968 	55.891516 	55.921553 
29.750210 	55.885965 	55.891512 	55.921546 
29.750172 	55.885957 	55.891513 	55.921544 
29.750113 	55.885950 	55.891502 	55.921530 
29.750067 	55.885936 	55.891495 	55.921528 
29.750029 	55.885935 	55.891495 	55.921508 
29.750006 	55.885933 	55.891495 	55.921499 
29.750012 	55.885939 	55.891508 	55.921514 
29.750043 	55.885945 	55.891514 	55.921538 
29.750079 	55.885959 	55.891527 	55.921541 
29.750136 	55.885974 	55.891543 	55.921563 
19.759578 	53.915611 	53.919898 	53.946621 
19.759604 	53.915610 	53.919900 	53.946628 
19.759638 	53.915620 	53.919913 	53.946627 
19.759675 	53.915629 	53.919922 	53.946635 
19.759713 	53.915641 	53.919934 	53.946640 
19.759752 	53.915644 	53.919941 	53.946655 
19.759780 	53.915650 	53.919943 	53.946663 
19.759817 	53.915650 	53.919945 	53.946676 
19.759852 	53.915659 	53.919954 	53.946686 
19.759879 	53.915673 	53.919966 	53.946689 
19.759913 	53.915688 	53.919981 	53.946697 
19.759951 	53.915701 	53.919994 	53.946708 
19.759990 	53.915703 	53.919994 	53.946711 
19.760010 	53.915699 	53.919992 	53.946715 
19.760012 	53.915694 	53.919990 	53.946691 
19.759986 	53.915687 	53.919982 	53.946681 
19.759954 	53.915678 	53.919972 	53.946677 
19.759921 	53.915673 	53.919963 	53.946681 
19.759927 	53.915674 	53.919968 	53.946687 
19.759955 	53.915688 	53.919985 	53.946705 
19.760016 	53.915714 	53.920008 	53.946704 
19.760068 	53.915728 	53.920026 	53.946707 
19.760095 	53.915744 	53.920037 	53.946705 
19.760093 	53.915744 	53.920037 	53.946694 
19.760072 	53.915736 	53.920028 	53.946681 
19.760071 	53.915724 	53.920017 	53.946683 
19.760086 	53.915721 	53.920020 	53.946698 
19.760128 	53.915734 	53.920038 	53.946715 
19.760173 	53.915750 	53.920045 	53.946724 
19.760191 	53.915750 	53.920041 	53.946712
19.760176 	53.915742 	53.920030 	53.946706 
19.760131 	53.915733 	53.920019 	53.946691 
19.760094 	53.915721 	53.920006 	53.946697 
19.760080 	53.915716 	53.920003 	53.946695 
19.760097 	53.915718 	53.920010 	53.946714 
19.760137 	53.915734 	53.920028 	53.946717 
19.760194 	53.915750 	53.920042 	53.946723 
19.760234 	53.915768 	53.920054 	53.946721 
19.760238 	53.915768 	53.920050 	53.946724 
19.760233 	53.915750 	53.920034 	53.946723 
19.760209 	53.915738 	53.920019 	53.946719 
19.760201 	53.915725 	53.920009 	53.946712 
19.760204 	53.915731 	53.920021 	53.946732 
19.760233 	53.915743 	53.920033 	53.946740 
19.760268 	53.915759 	53.920050 	53.946771 
19.760306 	53.915773 	53.920060 	53.946778 
19.760334 	53.915777 	53.920063 	53.946784 
19.760361 	53.915777 	53.920066 	53.946777 
19.760373 	53.915781 	53.920073 	53.946795 
19.760393 	53.915780 	53.920075 	53.946801 
9.777588 	51.941510 	51.945503 	51.967389 
9.777574 	51.941505 	51.945500 	51.967388 
9.777565 	51.941504 	51.945496 	51.967375 
9.777546 	51.941500 	51.945488 	51.967368 
9.777507 	51.941495 	51.945480 	51.967358 
9.777463 	51.941483 	51.945467 	51.967365 
9.777426 	51.941478 	51.945466 	51.967367 
9.777424 	51.941478 	51.945467 	51.967374 
9.777454 	51.941484 	51.945477 	51.967383 
9.777505 	51.941496 	51.945488 	51.967396 
9.777558 	51.941508 	51.945497 	51.967402 
9.777589 	51.941510 	51.945489 	51.967388 
9.777567 	51.941496 	51.945473 	51.967376 
9.777521 	51.941475 	51.945453 	51.967355 
9.777484 	51.941455 	51.945440 	51.967353 
9.777467 	51.941447 	51.945433 	51.967350 
9.777469 	51.941450 	51.945437 	51.967349 
9.777484 	51.941454 	51.945442 	51.967354 
9.777500 	51.941455 	51.945446 	51.967354 
9.777508 	51.941460 	51.945449 	51.967354 
9.777512 	51.941458 	51.945446 	51.967329 
9.777497 	51.941452 	51.945437 	51.967322 
9.777485 	51.941444 	51.945429 	51.967307 
9.777490 	51.941443 	51.945430 	51.967309 
9.777515 	51.941447 	51.945431 	51.967307 
9.777558 	51.941451 	51.945434 	51.967320 
9.777594 	51.941463 	51.945445 	51.967318 
9.777627 	51.941473 	51.945456 	51.967317 
9.777646 	51.941483 	51.945464 	51.967310 
9.777653 	51.941485 	51.945464 	51.967308 
9.777652 	51.941484 	51.945463 	51.967315 
9.777657 	51.941480 	51.945458 	51.967319 
9.777673 	51.941483 	51.945460 	51.967333 
9.777703 	51.941494 	51.945472 	51.967344 
9.777744 	51.941506 	51.945486 	51.967360 
9.777790 	51.941518 	51.945499 	51.967363 
9.777830 	51.941525 	51.945501 	51.967361 
9.777847 	51.941529 	51.945506 	51.967352 
9.777850 	51.941528 	51.945503 	51.967343 
9.777849 	51.941524 	51.945504 	51.967347 
9.777867 	51.941529 	51.945510 	51.967351 
9.777909 	51.941544 	51.945526 	51.967366 
9.777974 	51.941563 	51.945549 	51.967384 
9.778038 	51.941586 	51.945565 	51.967401 
9.778062 	51.941594 	51.945568 	51.967395 
9.778046 	51.941592 	51.945565 	51.967379 
9.778023 	51.941580 	51.945551 	51.967375 
9.778002 	51.941568 	51.945541 	51.967369 
9.778008 	51.941571 	51.945545 	51.967381 
9.778055 	51.941580 	51.945557 	51.967398 
-0.210881 	49.961461 	49.965297 	49.980029 
-0.210390 	49.961563 	49.965402 	49.980145 
-0.209836 	49.961685 	49.965528 	49.980264 
-0.209248 	49.961810 	49.965657 	49.980382 
-0.208628 	49.961943 	49.965787 	49.980503 
-0.207990 	49.962077 	49.965922 	49.980633 
-0.207333 	49.962217 	49.966060 	49.980766 
-0.206676 	49.962350 	49.966189 	49.980887 
-0.206037 	49.962474 	49.966313 	49.980999 
-0.205430 	49.962596 	49.966430 	49.981105 
-0.204876 	49.962704 	49.966534 	49.981188 
-0.204395 	49.962794 	49.966621 	49.981278 
-0.204001 	49.962868 	49.966689 	49.981334 
-0.203694 	49.962927 	49.966737 	49.981370 
-0.203473 	49.962962 	49.966765 	49.981379 
-0.203359 	49.962975 	49.966766 	49.981368 
-0.203362 	49.962969 	49.966747 	49.981331 
-0.203462 	49.962933 	49.966706 	49.981283 
-0.203656 	49.962882 	49.966654 	49.981223 
-0.203909 	49.962820 	49.966591 	49.981160 
-0.204195 	49.962755 	49.966523 	49.981107 
-0.204490 	49.962693 	49.966455 	49.981050 
-0.204768 	49.962628 	49.966398 	49.980995 
-0.205037 	49.962574 	49.966344 	49.980956 
-0.205273 	49.962524 	49.966303 	49.980922 
-0.205472 	49.962487 	49.966271 	49.980874 
-0.205630 	49.962463 	49.966250 	49.980854 
-0.205752 	49.962452 	49.966241 	49.980854 
-0.205833 	49.962443 	49.966232 	49.980857 
-0.205893 	49.962438 	49.966227 	49.980844 
-0.205982 	49.962422 	49.966206 	49.980830 
-0.206104 	49.962393 	49.966173 	49.980772 
-0.206283 	49.962350 	49.966126 	49.980725 
-0.206512 	49.962301 	49.966071 	49.980669 
-0.206801 	49.962233 	49.966000 	49.980595 
-0.207142 	49.962156 	49.965919 	49.980513 
-0.207502 	49.962072 	49.965833 	49.980425 
-0.207856 	49.961991 	49.965757 	49.980354 
-0.208177 	49.961920 	49.965693 	49.980297 
-0.208451 	49.961867 	49.965645 	49.980260 
-0.208693 	49.961821 	49.965602 	49.980227 
-0.208903 	49.961786 	49.965568 	49.980197 
-0.209082 	49.961757 	49.965539 	49.980176 
-0.209243 	49.961729 	49.965514 	49.980154 
-0.209384 	49.961705 	49.965493 	49.980146
-0.209484 	49.961687 	49.965481 	49.980145
-0.209538 	49.961676 	49.965476 	49.980152 
-0.209536 	49.961679 	49.965481 	49.980158 
-0.209489 	49.961690 	49.965498 	49.980183 
-0.209425 	49.961712 	49.965518 	49.980205 
-10.191951 	47.979074 	47.980910 	47.987885 
-10.191962 	47.979081 	47.980915 	47.987888 
-10.191976 	47.979087 	47.980917 	47.987885 
-10.191999 	47.979085 	47.980913 	47.987876 
-10.192034 	47.979081 	47.980910 	47.987888 
-10.192056 	47.979079 	47.980906 	47.987884 
-10.192067 	47.979077 	47.980905 	47.987886 
-10.192074 	47.979076 	47.980903 	47.987889 
-10.192079 	47.979070 	47.980899 	47.987887 
-10.192086 	47.979072 	47.980898 	47.987877 
-10.192111 	47.979067 	47.980892 	47.987874 
-10.192146 	47.979064 	47.980888 	47.987853 
-10.192186 	47.979059 	47.980883 	47.987847 
-10.192237 	47.979050 	47.980875 	47.987844 
-10.192266 	47.979041 	47.980869 	47.987845 
-10.192285 	47.979036 	47.980864 	47.987841 
-10.192304 	47.979029 	47.980859 	47.987824 
-10.192328 	47.979029 	47.980855 	47.987830 
-10.192348 	47.979020 	47.980845 	47.987841 
-10.192380 	47.979011 	47.980838 	47.987841 
-10.192418 	47.979000 	47.980826 	47.987843 
-10.192470 	47.978988 	47.980813 	47.987823 
-10.192537 	47.978978 	47.980805 	47.987812 
-10.192591 	47.978979 	47.980806 	47.987805 
-10.192626 	47.978980 	47.980807 	47.987791 
-10.192649 	47.978980 	47.980808 	47.987781 
-10.192648 	47.978984 	47.980813 	47.987775 
-10.192643 	47.978988 	47.980818 	47.987784 
-10.192620 	47.978992 	47.980822 	47.987794 
-10.192600 	47.978993 	47.980821 	47.987786 
-10.192584 	47.978990 	47.980821 	47.987793 
-10.192565 	47.978988 	47.980823 	47.987806 
-10.192540 	47.978987 	47.980822 	47.987806 
-10.192525 	47.978982 	47.980821 	47.987810 
-10.192516 	47.978980 	47.980817 	47.987802 
-10.192512 	47.978979 	47.980816 	47.987799 
-10.192520 	47.978981 	47.980819 	47.987788 
-10.192545 	47.978977 	47.980815 	47.987778 
-10.192565 	47.978974 	47.980813 	47.987776 
-10.192583 	47.978974 	47.980812 	47.987774 
-10.192592 	47.978976 	47.980814 	47.987773 
-10.192595 	47.978975 	47.980809 	47.987760 
-10.192592 	47.978971 	47.980810 	47.987749 
-10.192582 	47.978974 	47.980814 	47.987742 
-10.192570 	47.978979 	47.980816 	47.987730 
-10.192549 	47.978982 	47.980818 	47.987746 
-10.192515 	47.978993 	47.980829 	47.987759 
-10.192467 	47.978998 	47.980835 	47.987761 
-10.192417 	47.979011 	47.980849 	47.987761 
-10.192366 	47.979024 	47.980860 	47.987760 
-20.182762 	45.988879 	45.988629 	45.988291 
-20.182732 	45.988886 	45.988636 	45.988304 
-20.182683 	45.988898 	45.988649 	45.988325 
-20.182625 	45.988910 	45.988660 	45.988344 
-20.182548 	45.988928 	45.988679 	45.988360 
-20.182478 	45.988944 	45.988696 	45.988374 
-20.182416 	45.988961 	45.988710 	45.988373 
-20.182377 	45.988971 	45.988718 	45.988374 
-20.182365 	45.988976 	45.988718 	45.988374 
-20.182374 	45.988974 	45.988714 	45.988374 
-20.182387 	45.988969 	45.988708 	45.988377 
-20.182393 	45.988962 	45.988702 	45.988381 
-20.182370 	45.988959 	45.988706 	45.988404 
-20.182320 	45.988970 	45.988718 	45.988414 
-20.182255 	45.988985 	45.988733 	45.988432 
-20.182167 	45.988999 	45.988752 	45.988464 
-20.182065 	45.989024 	45.988779 	45.988483 
-20.181967 	45.989048 	45.988802 	45.988513 
-20.181862 	45.989064 	45.988813 	45.988531 
-20.181767 	45.989075 	45.988822 	45.988553 
-20.181683 	45.989084 	45.988832 	45.988570 
-20.181617 	45.989100 	45.988844 	45.988573 
-20.181563 	45.989113 	45.988851 	45.988592 
-20.181514 	45.989118 	45.988857 	45.988591 
-20.181458 	45.989129 	45.988871 	45.988604 
-20.181413 	45.989141 	45.988881 	45.988616 
-20.181362 	45.989150 	45.988889 	45.988624 
-20.181316 	45.989162 	45.988902 	45.988642 
-20.181269 	45.989170 	45.988907 	45.988653 
-20.181232 	45.989171 	45.988909 	45.988652 
-20.181203 	45.989175 	45.988909 	45.988638 
-20.181193 	45.989171 	45.988907 	45.988628 
-20.181200 	45.989172 	45.988906 	45.988620 
-20.181205 	45.989167 	45.988900 	45.988614 
-20.181239 	45.989153 	45.988882 	45.988609 
-20.181264 	45.989139 	45.988870 	45.988610 
-20.181271 	45.989132 	45.988863 	45.988629 
-20.181253 	45.989131 	45.988864 	45.988642 
-20.181206 	45.989135 	45.988870 	45.988655 
-20.181169 	45.989145 	45.988880 	45.988659 
-20.181130 	45.989153 	45.988891 	45.988664 
-20.181119 	45.989157 	45.988893 	45.988660 
-20.181137 	45.989153 	45.988889 	45.988652 
-20.181176 	45.989142 	45.988873 	45.988638 
-20.181224 	45.989126 	45.988857 	45.988620 
-20.181282 	45.989114 	45.988837 	45.988598 
-20.181338 	45.989098 	45.988820 	45.988588 
-20.181367 	45.989085 	45.988809 	45.988590 
-20.181402 	45.989081 	45.988806 	45.988577 
-20.181444 	45.989077 	45.988799 	45.988565 
-30.162678 	43.994358 	43.992117 	43.984964 
-30.162637 	43.994365 	43.992123 	43.984979 
-30.162585 	43.994374 	43.992134 	43.984996 
-30.162537 	43.994380 	43.992138 	43.985009 
-30.162497 	43.994387 	43.992149 	43.985029 
-30.162457 	43.994401 	43.992160 	43.985049 
-30.162422 	43.994411 	43.992167 	43.985053 
-30.162405 	43.994418 	43.992171 	43.985061
-30.162390 	43.994418 	43.992169 	43.985069 
-30.162382 	43.994419 	43.992172 	43.985076 
-30.162367 	43.994425 	43.992182 	43.985084 
-30.162334 	43.994433 	43.992194 	43.985097 
-30.162326 	43.994442 	43.992201 	43.985103 
-30.162330 	43.994446 	43.992204 	43.985110 
-30.162338 	43.994449 	43.992206 	43.985106 
-30.162350 	43.994445 	43.992203 	43.985113 
-30.162343 	43.994441 	43.992201 	43.985120 
-30.162322 	43.994442 	43.992202 	43.985128 
-30.162299 	43.994448 	43.992211 	43.985129 
-30.162266 	43.994455 	43.992221 	43.985136 
-30.162232 	43.994461 	43.992225 	43.985137 
-30.162224 	43.994465 	43.992230 	43.985129 
-30.162225 	43.994462 	43.992229 	43.985123 
-30.162240 	43.994456 	43.992221 	43.985124 
-30.162262 	43.994450 	43.992217 	43.985115 
-30.162289 	43.994447 	43.992211 	43.985105 
-30.162304 	43.994443 	43.992212 	43.985092 
-30.162303 	43.994442 	43.992217 	43.985092 
-30.162301 	43.994446 	43.992220 	43.985091 
-30.162293 	43.994452 	43.992228 	43.985094 
-30.162298 	43.994459 	43.992233 	43.985093 
-30.162309 	43.994461 	43.992237 	43.985089 
-30.162319 	43.994462 	43.992236 	43.985074 
-30.162332 	43.994467 	43.992240 	43.985070 
-30.162344 	43.994470 	43.992240 	43.985057 
-30.162352 	43.994467 	43.992235 	43.985048 
-30.162379 	43.994460 	43.992234 	43.985042 
-30.162400 	43.994460 	43.992234 	43.985030
-30.162420 	43.994462 	43.992235 	43.985014 
-30.162428 	43.994464 	43.992236 	43.985001 
-30.162436 	43.994462 	43.992227 	43.984995 
-30.162436 	43.994459 	43.992223 	43.984988 
-30.162406 	43.994460 	43.992226 	43.984998 
-30.162366 	43.994464 	43.992233 	43.985012 
-30.162326 	43.994472 	43.992243 	43.985026 
-30.162298 	43.994485 	43.992255 	43.985021 
-30.162295 	43.994491 	43.992258 	43.985014 
-30.162311 	43.994497 	43.992259 	43.985013 
-30.162335 	43.994495 	43.992253 	43.985010 
-30.162368 	43.994488 	43.992250 	43.985007 
-40.147325 	41.992143 	41.988407 	41.975306 
-40.147310 	41.992152 	41.988412 	41.975303 
-40.147282 	41.992159 	41.988415 	41.975314 
-40.147237 	41.992167 	41.988424 	41.975321 
-40.147188 	41.992185 	41.988442 	41.975322 
-40.147122 	41.992199 	41.988452 	41.975328 
-40.147050 	41.992215 	41.988469 	41.975342 
-40.146967 	41.992233 	41.988489 	41.975363 
-40.146879 	41.992254 	41.988514 	41.975378 
-40.146787 	41.992279 	41.988539 	41.975394 
-40.146698 	41.992300 	41.988560 	41.975400 
-40.146608 	41.992324 	41.988578 	41.975417 
-40.146519 	41.992339 	41.988596 	41.975440 
-40.146447 	41.992350 	41.988605 	41.975468 
-40.146389 	41.992366 	41.988619 	41.975486 
-40.146336 	41.992383 	41.988633 	41.975493 
-40.146276 	41.992398 	41.988644 	41.975501 
-40.146214 	41.992407 	41.988654 	41.975503 
-40.146159 	41.992419 	41.988666 	41.975526 
-40.146099 	41.992432 	41.988676 	41.975545 
-40.146043 	41.992446 	41.988686 	41.975568 
-40.145981 	41.992463 	41.988701 	41.975586 
-40.145927 	41.992476 	41.988712 	41.975598 
-40.145894 	41.992480 	41.988718 	41.975606 
-40.145861 	41.992483 	41.988725 	41.975622 
-40.145837 	41.992491 	41.988730 	41.975629 
-40.145807 	41.992497 	41.988739 	41.975630 
-40.145776 	41.992501 	41.988742 	41.975634 
-40.145752 	41.992505 	41.988746 	41.975625 
-40.145727 	41.992513 	41.988752 	41.975625 
-40.145704 	41.992514 	41.988751 	41.975649 
-40.145685 	41.992513 	41.988751 	41.975662 
-40.145673 	41.992514 	41.988754 	41.975667 
-40.145666 	41.992523 	41.988764 	41.975685 
-40.145655 	41.992524 	41.988766 	41.975692 
-40.145640 	41.992528 	41.988768 	41.975696 
-40.145618 	41.992530 	41.988768 	41.975698 
-40.145594 	41.992530 	41.988770 	41.975700 
-40.145579 	41.992529 	41.988771 	41.975726 
-40.145573 	41.992530 	41.988770 	41.975746 
-40.145580 	41.992530 	41.988767 	41.975760 
-40.145610 	41.992519 	41.988760 	41.975760 
-40.145655 	41.992514 	41.988757 	41.975755 
-40.145716 	41.992508 	41.988748 	41.975741 
-40.145783 	41.992493 	41.988731 	41.975738 
-40.145867 	41.992474 	41.988711 	41.975735 
-40.145953 	41.992458 	41.988695 	41.975724 
-40.146029 	41.992445 	41.988680 	41.975708 
-40.146094 	41.992432 	41.988667 	41.975686 
-40.146136 	41.992419 	41.988657 	41.975660 
-50.139264 	39.981020 	39.976375 	39.959188 
-50.139213 	39.981037 	39.976386 	39.959200 
-50.139183 	39.981049 	39.976395 	39.959208 
-50.139181 	39.981063 	39.976405 	39.959216 
-50.139187 	39.981069 	39.976408 	39.959219 
-50.139199 	39.981070 	39.976413 	39.959221 
-50.139206 	39.981077 	39.976421 	39.959235 
-50.139217 	39.981088 	39.976431 	39.959246 
-50.139229 	39.981092 	39.976433 	39.959250 
-50.139259 	39.981085 	39.976422 	39.959243 
-50.139296 	39.981070 	39.976403 	39.959236 
-50.139329 	39.981055 	39.976390 	39.959201 
-50.139329 	39.981049 	39.976387 	39.959185 
-50.139310 	39.981050 	39.976388 	39.959183 
-50.139258 	39.981058 	39.976403 	39.959184 
-50.139184 	39.981073 	39.976418 	39.959183 
-50.139095 	39.981089 	39.976436 	39.959198 
-50.139005 	39.981113 	39.976459 	39.959212 
-50.138917 	39.981141 	39.976495 	39.959230 
-50.138845 	39.981167 	39.976519 	39.959248 
-50.138770 	39.981191 	39.976546 	39.959251 
-50.138723 	39.981220 	39.976574 	39.959249 
-50.138697 	39.981240 	39.976591 	39.959255 
-50.138678 	39.981253 	39.976609 	39.959269 
-50.138686 	39.981262 	39.976618 	39.959275 
-50.138703 	39.981264 	39.976620 	39.959292 
-50.138719 	39.981255 	39.976609 	39.959300 
-50.138740 	39.981243 	39.976603 	39.959304 
-50.138780 	39.981235 	39.976594 	39.959316 
-50.138817 	39.981226 	39.976587 	39.959319 
-50.138844 	39.981220 	39.976574 	39.959337 
-50.138836 	39.981215 	39.976570 	39.959357 
-50.138796 	39.981216 	39.976570 	39.959373 
-50.138732 	39.981218 	39.976579 	39.959397 
-50.138646 	39.981230 	39.976588 	39.959414 
-50.138552 	39.981242 	39.976599 	39.959431 
-50.138450 	39.981255 	39.976615 	39.959447 
-50.138338 	39.981272 	39.976634 	39.959464 
-50.138218 	39.981294 	39.976658 	39.959481 
-50.138083 	39.981317 	39.976680 	39.959504 
-50.137943 	39.981343 	39.976709 	39.959511 
-50.137799 	39.981371 	39.976732 	39.959554 
-50.137686 	39.981394 	39.976756 	39.959602 
-50.137605 	39.981421 	39.976776 	39.959635 
-50.137558 	39.981439 	39.976788 	39.959658 
-50.137546 	39.981445 	39.976794 	39.959657 
-50.137548 	39.981450 	39.976800 	39.959654 
-50.137557 	39.981451 	39.976796 	39.959655 
-50.137578 	39.981441 	39.976771 	39.959647 
-50.137608 	39.981422 	39.976753 	39.959637 
-60.125249 	37.962979 	37.958378 	37.942587 
-60.125236 	37.962972 	37.958369 	37.942580 
-60.125208 	37.962964 	37.958361 	37.942583 
-60.125122 	37.962957 	37.958359 	37.942574 
-60.125016 	37.962961 	37.958367 	37.942565 
-60.124905 	37.962973 	37.958384 	37.942577 
-60.124788 	37.962985 	37.958400 	37.942590 
-60.124667 	37.962998 	37.958415 	37.942591 
-60.124505 	37.963014 	37.958433 	37.942597 
-60.124337 	37.963041 	37.958467 	37.942629 
-60.124169 	37.963071 	37.958498 	37.942668 
-60.124032 	37.963097 	37.958525 	37.942701 
-60.123904 	37.963120 	37.958548 	37.942722 
-60.123787 	37.963149 	37.958579 	37.942771 
-60.123693 	37.963175 	37.958603 	37.942838 
-60.123654 	37.963196 	37.958625 	37.942893 
-60.123623 	37.963218 	37.958645 	37.942945 
-60.123597 	37.963233 	37.958656 	37.942988 
-60.123574 	37.963238 	37.958662 	37.943019 
-60.123556 	37.963241 	37.958664 	37.943056 
-60.123550 	37.963240 	37.958662 	37.943109 
-60.123553 	37.963236 	37.958656 	37.943157 
-60.123548 	37.963233 	37.958649 	37.943194 
-60.123544 	37.963233 	37.958652 	37.943246 
-60.123540 	37.963239 	37.958657 	37.943293 
-60.123529 	37.963248 	37.958663 	37.943339 
-60.123507 	37.963250 	37.958663 	37.943383 
-60.123483 	37.963248 	37.958660 	37.943421 
-60.123435 	37.963249 	37.958663 	37.943449 
-60.123395 	37.963251 	37.958665 	37.943473 
-60.123346 	37.963251 	37.958666 	37.943494 
-60.123317 	37.963258 	37.958678 	37.943511 
-60.123293 	37.963269 	37.958689 	37.943533 
-60.123312 	37.963277 	37.958695 	37.943564 
-60.123352 	37.963281 	37.958704 	37.943600 
-60.123408 	37.963282 	37.958705 	37.943626 
-60.123496 	37.963283 	37.958704 	37.943637 
-60.123605 	37.963281 	37.958697 	37.943649 
-60.123754 	37.963273 	37.958684 	37.943660 
-60.123905 	37.963252 	37.958659 	37.943667 
-60.124056 	37.963226 	37.958634 	37.943669 
-60.124207 	37.963203 	37.958613 	37.943675 
-60.124345 	37.963186 	37.958598 	37.943684 
-60.124494 	37.963160 	37.958572 	37.943678 
-60.124632 	37.963133 	37.958546 	37.943658 
-60.124753 	37.963108 	37.958523 	37.943643 
-60.124859 	37.963086 	37.958499 	37.943635 
-60.124924 	37.963065 	37.958481 	37.943632 
-60.124920 	37.963033 	37.958438 	37.943631 
-60.124906 	37.963003 	37.958415 	37.943631
