6/28/2017 11:35 AM
nDataPerSetPoint: 50
RAF_062817 Calibrating RAF Probes June 28, 2017
Reference(C), FastResp 3241(Ohm), FastResp 2932(Ohm), FastResp 3245(Ohm)
39.743983 	56.944072 	58.141204 	57.931582 
39.743886 	56.944085 	58.141207 	57.931575 
39.743808 	56.944102 	58.141249 	57.931572 
39.743758 	56.944100 	58.141289 	57.931563 
39.743738 	56.944122 	58.141327 	57.931563 
39.743758 	56.944125 	58.141358 	57.931570 
39.743825 	56.944154 	58.141351 	57.931588 
39.743900 	56.944187 	58.141388 	57.931605 
39.743980 	56.944207 	58.141419 	57.931620 
39.744054 	56.944212 	58.141464 	57.931623 
39.744091 	56.944206 	58.141446 	57.931629 
39.744090 	56.944213 	58.141440 	57.931610 
39.744067 	56.944188 	58.141356 	57.931590 
39.744007 	56.944156 	58.141344 	57.931549 
39.743931 	56.944134 	58.141307 	57.931525 
39.743838 	56.944104 	58.141250 	57.931508 
39.743755 	56.944076 	58.141214 	57.931516 
39.743690 	56.944065 	58.141160 	57.931513 
39.743650 	56.944066 	58.141188 	57.931514 
39.743633 	56.944066 	58.141237 	57.931514 
39.743633 	56.944090 	58.141270 	57.931510 
39.743642 	56.944108 	58.141264 	57.931516 
39.743680 	56.944123 	58.141302 	57.931532 
39.743748 	56.944150 	58.141295 	57.931554 
39.743821 	56.944153 	58.141331 	57.931579 
39.743896 	56.944165 	58.141382 	57.931601 
39.743969 	56.944152 	58.141409 	57.931606 
39.744011 	56.944133 	58.141410 	57.931615 
39.744024 	56.944121 	58.141420 	57.931609 
39.744008 	56.944098 	58.141361 	57.931608 
39.743975 	56.944076 	58.141345 	57.931596 
39.743949 	56.944044 	58.141347 	57.931587 
39.743928 	56.944021 	58.141324 	57.931580 
39.743898 	56.943997 	58.141354 	57.931584 
39.743880 	56.943986 	58.141318 	57.931586 
39.743853 	56.943995 	58.141313 	57.931580 
39.743804 	56.943954 	58.141326 	57.931562 
39.743766 	56.943947 	58.141281 	57.931554 
39.743729 	56.943959 	58.141265 	57.931549 
39.743734 	56.943985 	58.141245 	57.931555 
39.743774 	56.944026 	58.141273 	57.931570 
39.743869 	56.944038 	58.141288 	57.931610 
39.744013 	56.944082 	58.141357 	57.931656 
39.744216 	56.944156 	58.141409 	57.931720 
39.744478 	56.944226 	58.141473 	57.931788 
39.744814 	56.944312 	58.141565 	57.931866 
39.745190 	56.944409 	58.141653 	57.931941 
39.745624 	56.944504 	58.141781 	57.932031 
39.746101 	56.944617 	58.141843 	57.932127 
39.746615 	56.944716 	58.141927 	57.932234 
29.749522 	55.069501 	56.162078 	55.959087 
29.749656 	55.069531 	56.162136 	55.959121 
29.749797 	55.069537 	56.162176 	55.959159 
29.749968 	55.069579 	56.162237 	55.959196 
29.750184 	55.069658 	56.162289 	55.959245 
29.750444 	55.069758 	56.162372 	55.959305 
29.750718 	55.069845 	56.162442 	55.959359 
29.751001 	55.069929 	56.162516 	55.959412 
29.751295 	55.070002 	56.162615 	55.959449 
29.751566 	55.070060 	56.162717 	55.959502 
29.751814 	55.070121 	56.162815 	55.959533 
29.752011 	55.070182 	56.162916 	55.959564 
29.752163 	55.070177 	56.162951 	55.959570 
29.752274 	55.070184 	56.162984 	55.959575 
29.752362 	55.070198 	56.163015 	55.959582 
29.752396 	55.070163 	56.163039 	55.959581 
29.752393 	55.070144 	56.163082 	55.959572 
29.752362 	55.070118 	56.163058 	55.959563 
29.752298 	55.070105 	56.163053 	55.959546 
29.752202 	55.070072 	56.163053 	55.959509 
29.752063 	55.070069 	56.163062 	55.959472 
29.751916 	55.070057 	56.163044 	55.959432 
29.751764 	55.070024 	56.163015 	55.959403 
29.751622 	55.070008 	56.162987 	55.959378 
29.751512 	55.070007 	56.162995 	55.959362 
29.751416 	55.069998 	56.162973 	55.959348 
29.751329 	55.069990 	56.162975 	55.959341
29.751226 	55.069967 	56.162967 	55.959320 
29.751119 	55.069942 	56.162960 	55.959287 
29.750990 	55.069914 	56.162948 	55.959262 
29.750878 	55.069899 	56.162920 	55.959245 
29.750778 	55.069879 	56.162863 	55.959217 
29.750680 	55.069867 	56.162841 	55.959195 
29.750583 	55.069836 	56.162808 	55.959182 
29.750442 	55.069780 	56.162760 	55.959157 
29.750255 	55.069701 	56.162723 	55.959116 
29.750052 	55.069636 	56.162698 	55.959079 
29.749862 	55.069568 	56.162656 	55.959045 
29.749668 	55.069536 	56.162635 	55.959024 
29.749509 	55.069510 	56.162596 	55.959001 
29.749391 	55.069468 	56.162525 	55.958996 
29.749291 	55.069473 	56.162507 	55.958984 
29.749208 	55.069449 	56.162486 	55.958986 
29.749154 	55.069440 	56.162495 	55.958983 
29.749108 	55.069416 	56.162453 	55.958989 
29.749103 	55.069413 	56.162458 	55.958996 
29.749143 	55.069426 	56.162426 	55.959020 
29.749235 	55.069464 	56.162391 	55.959051 
29.749378 	55.069497 	56.162450 	55.959097 
29.749576 	55.069556 	56.162491 	55.959148 
19.763886 	53.191004 	54.179341 	53.982233 
19.763895 	53.190994 	54.179294 	53.982232 
19.763891 	53.190996 	54.179295 	53.982233 
19.763898 	53.191008 	54.179311 	53.982236 
19.763924 	53.191054 	54.179303 	53.982240 
19.763982 	53.191065 	54.179319 	53.982251 
19.764044 	53.191087 	54.179345 	53.982266 
19.764132 	53.191092 	54.179324 	53.982277 
19.764224 	53.191124 	54.179328 	53.982302 
19.764326 	53.191154 	54.179340 	53.982337 
19.764446 	53.191150 	54.179348 	53.982357 
19.764580 	53.191190 	54.179406 	53.982386 
19.764689 	53.191212 	54.179437 	53.982406 
19.764798 	53.191237 	54.179455 	53.982428 
19.764899 	53.191267 	54.179488 	53.982435 
19.764973 	53.191292 	54.179437 	53.982446 
19.765066 	53.191284 	54.179441 	53.982473 
19.765158 	53.191326 	54.179437 	53.982503 
19.765279 	53.191369 	54.179474 	53.982530 
19.765395 	53.191418 	54.179490 	53.982559 
19.765495 	53.191441 	54.179532 	53.982579 
19.765577 	53.191463 	54.179544 	53.982590 
19.765660 	53.191476 	54.179572 	53.982598 
19.765748 	53.191490 	54.179625 	53.982619 
19.765834 	53.191505 	54.179673 	53.982637 
19.765916 	53.191548 	54.179695 	53.982648 
19.766005 	53.191574 	54.179689 	53.982662 
19.766090 	53.191571 	54.179724 	53.982683 
19.766189 	53.191582 	54.179735 	53.982713 
19.766304 	53.191614 	54.179781 	53.982733 
19.766415 	53.191633 	54.179845 	53.982748 
19.766531 	53.191661 	54.179920 	53.982772 
19.766661 	53.191706 	54.179952 	53.982798 
19.766797 	53.191744 	54.179980 	53.982826 
19.766915 	53.191773 	54.180012 	53.982848 
19.767008 	53.191788 	54.180033 	53.982866 
19.767085 	53.191818 	54.180052 	53.982876 
19.767149 	53.191834 	54.180068 	53.982881 
19.767196 	53.191833 	54.180063 	53.982880 
19.767246 	53.191863 	54.180026 	53.982885 
19.767290 	53.191893 	54.180007 	53.982897 
19.767335 	53.191876 	54.179988 	53.982909 
19.767371 	53.191869 	54.179999 	53.982907 
19.767400 	53.191880 	54.180015 	53.982911 
19.767421 	53.191901 	54.180023 	53.982916 
19.767453 	53.191924 	54.180095 	53.982917 
19.767449 	53.191946 	54.180127 	53.982913 
19.767435 	53.191929 	54.180157 	53.982907 
19.767420 	53.191918 	54.180162 	53.982900 
19.767407 	53.191890 	54.180181 	53.982900 
9.781284 	51.307744 	52.190780 	52.000032 
9.781429 	51.307763 	52.190815 	52.000048 
9.781596 	51.307793 	52.190844 	52.000077 
9.781774 	51.307811 	52.190875 	52.000101 
9.781935 	51.307865 	52.190892 	52.000139 
9.782088 	51.307896 	52.190878 	52.000170 
9.782246 	51.307907 	52.190906 	52.000205 
9.782402 	51.307925 	52.190939 	52.000240 
9.782570 	51.307909 	52.190969 	52.000273 
9.782744 	51.307945 	52.190999 	52.000305 
9.782900 	51.307968 	52.191035 	52.000322 
9.783040 	51.307981 	52.191108 	52.000357 
9.783181 	51.308005 	52.191180 	52.000382 
9.783321 	51.308055 	52.191243 	52.000397 
9.783453 	51.308071 	52.191257 	52.000409 
9.783555 	51.308070 	52.191287 	52.000433 
9.783668 	51.308104 	52.191296 	52.000451 
9.783763 	51.308111 	52.191351 	52.000462 
9.783863 	51.308132 	52.191373 	52.000479 
9.783951 	51.308167 	52.191388 	52.000496 
9.784023 	51.308164 	52.191459 	52.000500 
9.784083 	51.308143 	52.191485 	52.000510 
9.784146 	51.308176 	52.191505 	52.000517 
9.784188 	51.308166 	52.191515 	52.000529 
9.784210 	51.308138 	52.191526 	52.000542 
9.784237 	51.308148 	52.191539 	52.000541 
9.784254 	51.308141 	52.191506 	52.000555 
9.784280 	51.308139 	52.191539 	52.000566 
9.784315 	51.308146 	52.191507 	52.000574 
9.784355 	51.308164 	52.191511 	52.000584 
9.784385 	51.308183 	52.191484 	52.000588 
9.784430 	51.308209 	52.191498 	52.000594 
9.784441 	51.308194 	52.191512 	52.000591 
9.784456 	51.308212 	52.191531 	52.000596 
9.784476 	51.308197 	52.191558 	52.000586 
9.784486 	51.308199 	52.191604 	52.000585 
9.784473 	51.308194 	52.191641 	52.000575 
9.784430 	51.308186 	52.191599 	52.000566 
9.784379 	51.308183 	52.191541 	52.000558 
9.784331 	51.308180 	52.191536 	52.000551 
9.784292 	51.308192 	52.191528 	52.000541 
9.784249 	51.308205 	52.191517 	52.000526 
9.784193 	51.308177 	52.191494 	52.000512 
9.784123 	51.308132 	52.191412 	52.000506 
9.784064 	51.308094 	52.191353 	52.000498 
9.784000 	51.308093 	52.191371 	52.000484 
9.783938 	51.308076 	52.191377 	52.000473 
9.783866 	51.308095 	52.191361 	52.000459 
9.783782 	51.308095 	52.191295 	52.000450 
9.783707 	51.308060 	52.191256 	52.000443 
-0.208921 	49.416263 	50.194408 	50.009996 
-0.208888 	49.416271 	50.194413 	50.010010 
-0.208845 	49.416286 	50.194416 	50.010024 
-0.208806 	49.416314 	50.194415 	50.010032 
-0.208754 	49.416287 	50.194424 	50.010052 
-0.208686 	49.416277 	50.194387 	50.010076 
-0.208599 	49.416276 	50.194397 	50.010094 
-0.208513 	49.416293 	50.194413 	50.010108 
-0.208427 	49.416325 	50.194446 	50.010128 
-0.208327 	49.416327 	50.194464 	50.010155 
-0.208229 	49.416337 	50.194483 	50.010175 
-0.208157 	49.416367 	50.194524 	50.010190 
-0.208072 	49.416358 	50.194550 	50.010206 
-0.207961 	49.416384 	50.194573 	50.010225 
-0.207848 	49.416412 	50.194587 	50.010254 
-0.207723 	49.416405 	50.194611 	50.010281
-0.207606 	49.416445 	50.194614 	50.010298
-0.207507 	49.416453 	50.194663 	50.010326 
-0.207404 	49.416484 	50.194620 	50.010343 
-0.207293 	49.416497 	50.194634 	50.010367 
-0.207183 	49.416502 	50.194677 	50.010382 
-0.207075 	49.416502 	50.194695 	50.010407 
-0.206960 	49.416544 	50.194714 	50.010416 
-0.206867 	49.416565 	50.194737 	50.010434 
-0.206757 	49.416604 	50.194765 	50.010448 
-0.206639 	49.416626 	50.194779 	50.010467 
-0.206525 	49.416638 	50.194799 	50.010487 
-0.206426 	49.416633 	50.194762 	50.010515 
-0.206321 	49.416658 	50.194776 	50.010532 
-0.206211 	49.416682 	50.194763 	50.010557 
-0.206087 	49.416703 	50.194785 	50.010587 
-0.205957 	49.416728 	50.194816 	50.010616 
-0.205844 	49.416741 	50.194806 	50.010642 
-0.205716 	49.416770 	50.194828 	50.010656 
-0.205578 	49.416840 	50.194840 	50.010680 
-0.205437 	49.416887 	50.194931 	50.010700 
-0.205296 	49.416914 	50.194971 	50.010731 
-0.205152 	49.416917 	50.194998 	50.010770 
-0.205014 	49.416910 	50.195021 	50.010791 
-0.204906 	49.416942 	50.195054 	50.010809 
-0.204789 	49.416932 	50.195093 	50.010826 
-0.204647 	49.416963 	50.195113 	50.010845 
-0.204519 	49.416990 	50.195139 	50.010872 
-0.204401 	49.417017 	50.195147 	50.010895 
-0.204285 	49.417034 	50.195118 	50.010921 
-0.204184 	49.417060 	50.195136 	50.010940 
-0.204097 	49.417065 	50.195150 	50.010966 
-0.204003 	49.417079 	50.195172 	50.010982 
-0.203905 	49.417071 	50.195263 	50.011001 
-0.203821 	49.417089 	50.195289 	50.011011 
-10.192015 	47.519178 	48.192769 	48.015256 
-10.191920 	47.519175 	48.192787 	48.015279 
-10.191798 	47.519180 	48.192814 	48.015311 
-10.191664 	47.519183 	48.192836 	48.015329 
-10.191536 	47.519205 	48.192862 	48.015351 
-10.191416 	47.519220 	48.192887 	48.015372 
-10.191307 	47.519227 	48.192913 	48.015386 
-10.191192 	47.519242 	48.192934 	48.015401 
-10.191086 	47.519262 	48.192964 	48.015429 
-10.190978 	47.519280 	48.192986 	48.015454 
-10.190866 	47.519313 	48.193009 	48.015476 
-10.190756 	47.519332 	48.193036 	48.015506 
-10.190654 	47.519337 	48.193064 	48.015533 
-10.190535 	47.519340 	48.193104 	48.015555 
-10.190377 	47.519372 	48.193138 	48.015585 
-10.190220 	47.519412 	48.193171 	48.015603 
-10.190064 	47.519444 	48.193202 	48.015638 
-10.189909 	47.519486 	48.193221 	48.015669 
-10.189752 	47.519527 	48.193244 	48.015691 
-10.189611 	47.519565 	48.193257 	48.015715 
-10.189486 	47.519572 	48.193273 	48.015723 
-10.189356 	47.519599 	48.193294 	48.015751 
-10.189232 	47.519624 	48.193307 	48.015777 
-10.189074 	47.519650 	48.193349 	48.015807 
-10.188903 	47.519711 	48.193388 	48.015847 
-10.188756 	47.519733 	48.193418 	48.015879 
-10.188634 	47.519748 	48.193440 	48.015900 
-10.188528 	47.519760 	48.193474 	48.015912 
-10.188445 	47.519784 	48.193497 	48.015912 
-10.188401 	47.519773 	48.193517 	48.015917 
-10.188375 	47.519778 	48.193511 	48.015929 
-10.188357 	47.519790 	48.193517 	48.015937 
-10.188363 	47.519777 	48.193472 	48.015942 
-10.188365 	47.519771 	48.193434 	48.015950 
-10.188393 	47.519783 	48.193434 	48.015947 
-10.188428 	47.519777 	48.193430 	48.015947 
-10.188465 	47.519760 	48.193424 	48.015944 
-10.188510 	47.519751 	48.193418 	48.015940 
-10.188555 	47.519739 	48.193400 	48.015924 
-10.188602 	47.519723 	48.193386 	48.015900 
-10.188651 	47.519726 	48.193365 	48.015896 
-10.188684 	47.519703 	48.193347 	48.015883 
-10.188715 	47.519716 	48.193326 	48.015883 
-10.188761 	47.519735 	48.193303 	48.015882 
-10.188833 	47.519736 	48.193289 	48.015864 
-10.188924 	47.519710 	48.193272 	48.015854 
-10.189030 	47.519662 	48.193259 	48.015830 
-10.189143 	47.519604 	48.193245 	48.015812 
-10.189254 	47.519572 	48.193230 	48.015804 
-10.189364 	47.519526 	48.193213 	48.015785 
-20.180478 	45.614667 	46.183797 	46.013304 
-20.180417 	45.614667 	46.183807 	46.013321 
-20.180356 	45.614691 	46.183812 	46.013334 
-20.180286 	45.614716 	46.183822 	46.013350 
-20.180200 	45.614752 	46.183831 	46.013365 
-20.180119 	45.614788 	46.183847 	46.013379 
-20.180055 	45.614780 	46.183857 	46.013386 
-20.180014 	45.614793 	46.183869 	46.013399 
-20.179978 	45.614793 	46.183876 	46.013414 
-20.179929 	45.614801 	46.183883 	46.013433 
-20.179863 	45.614843 	46.183902 	46.013445
-20.179813 	45.614863 	46.183906 	46.013449 
-20.179774 	45.614891 	46.183908 	46.013458 
-20.179741 	45.614899 	46.183908 	46.013465 
-20.179728 	45.614897 	46.183914 	46.013470 
-20.179712 	45.614901 	46.183930 	46.013472 
-20.179682 	45.614913 	46.183932 	46.013471 
-20.179652 	45.614939 	46.183933 	46.013481 
-20.179591 	45.614969 	46.183936 	46.013492 
-20.179546 	45.614987 	46.183942 	46.013508 
-20.179489 	45.614997 	46.183955 	46.013514 
-20.179441 	45.615022 	46.183962 	46.013521 
-20.179413 	45.615045 	46.183975 	46.013517 
-20.179410 	45.615038 	46.183985 	46.013526 
-20.179419 	45.615024 	46.183992 	46.013527 
-20.179405 	45.615038 	46.183995 	46.013529 
-20.179400 	45.615048 	46.183993 	46.013522 
-20.179391 	45.615064 	46.183978 	46.013523 
-20.179383 	45.615071 	46.183973 	46.013531 
-20.179396 	45.615100 	46.183976 	46.013521 
-20.179418 	45.615073 	46.183973 	46.013519 
-20.179443 	45.615060 	46.183974 	46.013514 
-20.179467 	45.615035 	46.183980 	46.013511 
-20.179481 	45.615021 	46.183953 	46.013505 
-20.179485 	45.614997 	46.183957 	46.013506 
-20.179479 	45.614993 	46.183962 	46.013505 
-20.179476 	45.615001 	46.183967 	46.013514 
-20.179474 	45.614985 	46.183965 	46.013519 
-20.179456 	45.614982 	46.183965 	46.013517 
-20.179451 	45.614987 	46.183966 	46.013511 
-20.179453 	45.614963 	46.183970 	46.013510 
-20.179448 	45.614953 	46.183970 	46.013507 
-20.179422 	45.614956 	46.183968 	46.013509 
-20.179377 	45.614973 	46.183930 	46.013513 
-20.179317 	45.615004 	46.183921 	46.013518 
-20.179285 	45.615015 	46.183921 	46.013517 
-20.179254 	45.615021 	46.183927 	46.013528 
-20.179236 	45.614997 	46.183936 	46.013529 
-20.179245 	45.614986 	46.183937 	46.013524 
-20.179256 	45.614959 	46.183924 	46.013518 
-30.163828 	43.706866 	44.169630 	44.006328 
-30.163757 	43.706876 	44.169641 	44.006336 
-30.163685 	43.706903 	44.169657 	44.006349 
-30.163616 	43.706918 	44.169660 	44.006364 
-30.163530 	43.706928 	44.169671 	44.006374 
-30.163418 	43.706952 	44.169683 	44.006388 
-30.163304 	43.706992 	44.169697 	44.006399 
-30.163207 	43.707018 	44.169714 	44.006412 
-30.163120 	43.707039 	44.169732 	44.006438 
-30.163028 	43.707055 	44.169753 	44.006460 
-30.162925 	43.707063 	44.169789 	44.006478 
-30.162824 	43.707078 	44.169809 	44.006493 
-30.162738 	43.707107 	44.169831 	44.006511 
-30.162662 	43.707098 	44.169849 	44.006516 
-30.162581 	43.707118 	44.169863 	44.006528 
-30.162508 	43.707130 	44.169885 	44.006546 
-30.162430 	43.707154 	44.169907 	44.006570 
-30.162357 	43.707193 	44.169924 	44.006605 
-30.162308 	43.707198 	44.169945 	44.006631 
-30.162269 	43.707199 	44.169962 	44.006647 
-30.162247 	43.707194 	44.169976 	44.006650 
-30.162236 	43.707205 	44.169985 	44.006656 
-30.162249 	43.707198 	44.169995 	44.006656 
-30.162264 	43.707186 	44.170002 	44.006656 
-30.162259 	43.707189 	44.170013 	44.006658 
-30.162238 	43.707196 	44.170020 	44.006658 
-30.162204 	43.707206 	44.170036 	44.006666 
-30.162169 	43.707210 	44.170043 	44.006675 
-30.162132 	43.707222 	44.170062 	44.006686 
-30.162092 	43.707228 	44.170031 	44.006697 
-30.162051 	43.707233 	44.169975 	44.006711 
-30.162012 	43.707231 	44.169976 	44.006727 
-30.161960 	43.707242 	44.169987 	44.006746 
-30.161905 	43.707246 	44.170011 	44.006756
-30.161876 	43.707251 	44.170022 	44.006768 
-30.161883 	43.707241 	44.170032 	44.006779 
-30.161894 	43.707224 	44.170041 	44.006783 
-30.161897 	43.707231 	44.170047 	44.006783 
-30.161900 	43.707229 	44.170042 	44.006780 
-30.161905 	43.707245 	44.170045 	44.006777 
-30.161904 	43.707264 	44.170046 	44.006775 
-30.161881 	43.707282 	44.170052 	44.006773 
-30.161850 	43.707295 	44.170055 	44.006776 
-30.161802 	43.707341 	44.170060 	44.006779 
-30.161764 	43.707360 	44.170065 	44.006787 
-30.161737 	43.707388 	44.170064 	44.006786 
-30.161702 	43.707386 	44.170059 	44.006776 
-30.161673 	43.707375 	44.170063 	44.006774 
-30.161637 	43.707378 	44.170065 	44.006769 
-30.161596 	43.707375 	44.170065 	44.006768 
-40.148038 	41.794273 	42.147462 	41.992973 
-40.148028 	41.794269 	42.147492 	41.992976 
-40.148014 	41.794265 	42.147524 	41.992985 
-40.148003 	41.794265 	42.147511 	41.993001 
-40.148001 	41.794270 	42.147509 	41.993010 
-40.147998 	41.794286 	42.147487 	41.993010 
-40.148001 	41.794297 	42.147458 	41.993013 
-40.148004 	41.794294 	42.147484 	41.993015 
-40.147984 	41.794301 	42.147495 	41.993023 
-40.147968 	41.794309 	42.147535 	41.993024 
-40.147946 	41.794319 	42.147576 	41.993031 
-40.147955 	41.794321 	42.147558 	41.993032 
-40.147951 	41.794326 	42.147573 	41.993031 
-40.147907 	41.794336 	42.147551 	41.993039 
-40.147849 	41.794351 	42.147525 	41.993055 
-40.147798 	41.794375 	42.147477 	41.993074 
-40.147742 	41.794398 	42.147452 	41.993086 
-40.147682 	41.794424 	42.147409 	41.993096 
-40.147624 	41.794435 	42.147367 	41.993110 
-40.147576 	41.794449 	42.147346 	41.993121 
-40.147542 	41.794471 	42.147391 	41.993127 
-40.147519 	41.794487 	42.147387 	41.993133 
-40.147496 	41.794484 	42.147428 	41.993137 
-40.147475 	41.794478 	42.147483 	41.993138 
-40.147451 	41.794481 	42.147526 	41.993126 
-40.147427 	41.794476 	42.147566 	41.993118 
-40.147403 	41.794477 	42.147602 	41.993122 
-40.147385 	41.794477 	42.147607 	41.993119 
-40.147361 	41.794469 	42.147586 	41.993116 
-40.147332 	41.794472 	42.147599 	41.993116 
-40.147314 	41.794478 	42.147599 	41.993116 
-40.147288 	41.794495 	42.147587 	41.993133 
-40.147261 	41.794502 	42.147548 	41.993148 
-40.147229 	41.794504 	42.147560 	41.993153 
-40.147189 	41.794504 	42.147567 	41.993156 
-40.147142 	41.794491 	42.147611 	41.993173 
-40.147077 	41.794496 	42.147619 	41.993187 
-40.147025 	41.794507 	42.147608 	41.993198 
-40.146983 	41.794516 	42.147649 	41.993212 
-40.146936 	41.794526 	42.147658 	41.993229 
-40.146884 	41.794528 	42.147656 	41.993256 
-40.146826 	41.794532 	42.147675 	41.993270 
-40.146798 	41.794533 	42.147655 	41.993285 
-40.146805 	41.794528 	42.147609 	41.993302 
-40.146835 	41.794520 	42.147621 	41.993303 
-40.146871 	41.794502 	42.147653 	41.993310 
-40.146913 	41.794490 	42.147683 	41.993309 
-40.146955 	41.794472 	42.147711 	41.993312 
-40.146981 	41.794457 	42.147724 	41.993306 
-40.146999 	41.794443 	42.147722 	41.993302 
-50.138566 	39.875350 	40.120361 	39.973281 
-50.138529 	39.875344 	40.120314 	39.973277 
-50.138508 	39.875330 	40.120291 	39.973234 
-50.138491 	39.875316 	40.120282 	39.973196 
-50.138457 	39.875308 	40.120196 	39.973168 
-50.138390 	39.875305 	40.120235 	39.973153 
-50.138286 	39.875310 	40.120271 	39.973165 
-50.138153 	39.875328 	40.120287 	39.973198 
-50.138013 	39.875349 	40.120328 	39.973212 
-50.137885 	39.875353 	40.120224 	39.973194 
-50.137761 	39.875362 	40.120178 	39.973175 
-50.137651 	39.875370 	40.120186 	39.973163 
-50.137538 	39.875383 	40.120233 	39.973152 
-50.137436 	39.875396 	40.120203 	39.973150 
-50.137378 	39.875368 	40.120168 	39.973147 
-50.137363 	39.875348 	40.120241 	39.973135 
-50.137362 	39.875329 	40.120216 	39.973115 
-50.137349 	39.875323 	40.120403 	39.973085 
-50.137294 	39.875320 	40.120502 	39.973098 
-50.137224 	39.875318 	40.120528 	39.973110 
-50.137184 	39.875325 	40.120484 	39.973121 
-50.137173 	39.875327 	40.120444 	39.973120 
-50.137156 	39.875326 	40.120468 	39.973157 
-50.137142 	39.875315 	40.120425 	39.973177 
-50.137139 	39.875307 	40.120361 	39.973206 
-50.137130 	39.875303 	40.120314 	39.973225 
-50.137106 	39.875301 	40.120289 	39.973228 
-50.137089 	39.875309 	40.120302 	39.973225 
-50.137074 	39.875324 	40.120332 	39.973227 
-50.137018 	39.875330 	40.120250 	39.973233 
-50.136932 	39.875366 	40.120239 	39.973245 
-50.136850 	39.875398 	40.120260 	39.973255 
-50.136764 	39.875432 	40.120260 	39.973293 
-50.136671 	39.875461 	40.120263 	39.973335 
-50.136588 	39.875489 	40.120237 	39.973369 
-50.136519 	39.875517 	40.120200 	39.973408 
-50.136478 	39.875539 	40.120233 	39.973427 
-50.136477 	39.875553 	40.120260 	39.973423 
-50.136492 	39.875564 	40.120269 	39.973388 
-50.136510 	39.875575 	40.120263 	39.973379 
-50.136552 	39.875582 	40.120313 	39.973383 
-50.136600 	39.875588 	40.120256 	39.973392 
-50.136675 	39.875588 	40.120150 	39.973381 
-50.136766 	39.875582 	40.120116 	39.973349 
-50.136858 	39.875580 	40.120035 	39.973316 
-50.136943 	39.875579 	40.119961 	39.973282 
-50.137016 	39.875563 	40.119993 	39.973245 
-50.137110 	39.875544 	40.119812 	39.973218 
-50.137198 	39.875521 	40.119722 	39.973204 
-50.137265 	39.875498 	40.119708 	39.973194 
-60.125243 	37.954534 	38.087341 	37.948681 
-60.125238 	37.954546 	38.087433 	37.948677 
-60.125218 	37.954561 	38.087503 	37.948667 
-60.125213 	37.954571 	38.087585 	37.948659 
-60.125196 	37.954575 	38.087689 	37.948658 
-60.125158 	37.954573 	38.087816 	37.948649 
-60.125120 	37.954567 	38.087974 	37.948641 
-60.125105 	37.954561 	38.087948 	37.948640 
-60.125117 	37.954561 	38.087928 	37.948641 
-60.125138 	37.954563 	38.087950 	37.948638 
-60.125179 	37.954566 	38.087860 	37.948642 
-60.125222 	37.954567 	38.087848 	37.948650 
-60.125226 	37.954564 	38.087883 	37.948662 
-60.125231 	37.954561 	38.087894 	37.948682 
-60.125274 	37.954557 	38.087876 	37.948700 
-60.125291 	37.954554 	38.087948 	37.948724 
-60.125308 	37.954553 	38.088029 	37.948743 
-60.125299 	37.954556 	38.088006 	37.948763 
-60.125257 	37.954556 	38.087942 	37.948773 
-60.125213 	37.954551 	38.087938 	37.948780 
-60.125174 	37.954543 	38.087886 	37.948790 
-60.125095 	37.954535 	38.087899 	37.948801 
-60.125004 	37.954530 	38.087943 	37.948811 
-60.124901 	37.954529 	38.088223 	37.948821 
-60.124810 	37.954534 	38.088373 	37.948824 
-60.124715 	37.954540 	38.088449 	37.948830 
-60.124667 	37.954542 	38.088478 	37.948842 
-60.124656 	37.954541 	38.088451 	37.948853 
-60.124632 	37.954541 	38.088411 	37.948852 
-60.124612 	37.954541 	38.088374 	37.948837 
-60.124606 	37.954542 	38.088295 	37.948821 
-60.124621 	37.954546 	38.088234 	37.948803 
-60.124649 	37.954548 	38.088159 	37.948786 
-60.124654 	37.954551 	38.088088 	37.948772 
-60.124652 	37.954556 	38.088017 	37.948771 
-60.124652 	37.954559 	38.087948 	37.948774 
-60.124661 	37.954562 	38.087768 	37.948769 
-60.124716 	37.954563 	38.087692 	37.948769 
-60.124762 	37.954561 	38.087732 	37.948777 
-60.124772 	37.954561 	38.087803 	37.948786 
-60.124772 	37.954566 	38.087827 	37.948789 
-60.124774 	37.954573 	38.087835 	37.948789 
-60.124782 	37.954585 	38.087807 	37.948784 
-60.124775 	37.954601 	38.087769 	37.948777 
-60.124748 	37.954623 	38.087725 	37.948777 
-60.124736 	37.954648 	38.087661 	37.948757 
-60.124736 	37.954673 	38.087570 	37.948750 
-60.124778 	37.954696 	38.087539 	37.948755 
-60.124806 	37.954717 	38.087507 	37.948764 
-60.124864 	37.954737 	38.087330 	37.948780
