5/24/2016 9:34 AM
nDataPerSetPoint: 50
Calibrating RAF Probes
Reference(C), Heated 812453B(Ohm), Heated 812453A(Ohm), FastResp 3243(Ohm)
39.742418 	57.857650 	57.878485 	58.350485
39.742359 	57.857647 	57.878483 	58.350440
39.742314 	57.857649 	57.878484 	58.350405
39.742291 	57.857659 	57.878495 	58.350368
39.742286 	57.857669 	57.878501 	58.350331
39.742292 	57.857684 	57.878516 	58.350319
39.742306 	57.857688 	57.878517 	58.350302
39.742293 	57.857682 	57.878508 	58.350285
39.742254 	57.857673 	57.878499 	58.350281
39.742215 	57.857664 	57.878493 	58.350273
39.742194 	57.857663 	57.878491 	58.350254
39.742187 	57.857669 	57.878496 	58.350231
39.742193 	57.857677 	57.878500 	58.350208
39.742203 	57.857682 	57.878505 	58.350179
39.742195 	57.857681 	57.878500 	58.350107
39.742169 	57.857676 	57.878493 	58.350035
39.742136 	57.857662 	57.878483 	58.349956
39.742087 	57.857651 	57.878471 	58.349873
39.742044 	57.857638 	57.878458 	58.349788
39.741980 	57.857626 	57.878446 	58.349703
39.741915 	57.857611 	57.878435 	58.349622
39.741869 	57.857603 	57.878427 	58.349540
39.741807 	57.857592 	57.878418 	58.349471
39.741734 	57.857579 	57.878408 	58.349396
39.741664 	57.857561 	57.878385 	58.349322
39.741590 	57.857540 	57.878362 	58.349249
39.741518 	57.857525 	57.878346 	58.349162
39.741435 	57.857512 	57.878335 	58.349067
39.741359 	57.857504 	57.878328 	58.348987
39.741285 	57.857501 	57.878321 	58.348887
39.741192 	57.857483 	57.878299 	58.348801
39.741093 	57.857454 	57.878267 	58.348711
39.740985 	57.857420 	57.878233 	58.348620
39.740866 	57.857384 	57.878193 	58.348518
39.740728 	57.857348 	57.878158 	58.348401
39.740601 	57.857307 	57.878114 	58.348310
39.740473 	57.857268 	57.878075 	58.348200
39.740369 	57.857243 	57.878050 	58.348082
39.740291 	57.857222 	57.878030 	58.347973
39.740211 	57.857206 	57.878011 	58.347869
39.740131 	57.857186 	57.877991 	58.347764
39.740032 	57.857162 	57.877967 	58.347662
39.739943 	57.857141 	57.877946 	58.347561
39.739850 	57.857115 	57.877919 	58.347463
39.739763 	57.857099 	57.877907 	58.347399
39.739691 	57.857087 	57.877897 	58.347343
39.739631 	57.857079 	57.877887 	58.347295
39.739596 	57.857067 	57.877878 	58.347247
39.739539 	57.857054 	57.877864 	58.347211
39.739492 	57.857034 	57.877843 	58.347174
29.746187 	55.893272 	55.912246 	56.374552
29.746224 	55.893283 	55.912254 	56.374557
29.746250 	55.893289 	55.912258 	56.374570
29.746255 	55.893281 	55.912249 	56.374585
29.746245 	55.893268 	55.912236 	56.374592
29.746220 	55.893256 	55.912224 	56.374603
29.746198 	55.893254 	55.912223 	56.374612
29.746164 	55.893258 	55.912226 	56.374615
29.746139 	55.893263 	55.912229 	56.374613
29.746118 	55.893265 	55.912228 	56.374609
29.746095 	55.893259 	55.912222 	56.374603
29.746074 	55.893247 	55.912211 	56.374578
29.746057 	55.893236 	55.912204 	56.374567
29.746064 	55.893235 	55.912200 	56.374565
29.746097 	55.893236 	55.912206 	56.374566
29.746142 	55.893245 	55.912215 	56.374568
29.746200 	55.893259 	55.912229 	56.374574
29.746258 	55.893272 	55.912238 	56.374583
29.746295 	55.893277 	55.912234 	56.374592
29.746321 	55.893276 	55.912234 	56.374598
29.746322 	55.893281 	55.912236 	56.374578
29.746318 	55.893282 	55.912235 	56.374575
29.746315 	55.893281 	55.912233 	56.374574
29.746328 	55.893277 	55.912233 	56.374575
29.746346 	55.893279 	55.912237 	56.374577
29.746392 	55.893285 	55.912245 	56.374582
29.746451 	55.893298 	55.912257 	56.374581
29.746507 	55.893307 	55.912267 	56.374572
29.746561 	55.893312 	55.912270 	56.374579
29.746608 	55.893317 	55.912273 	56.374577
29.746653 	55.893315 	55.912273 	56.374573
29.746690 	55.893316 	55.912275 	56.374577
29.746715 	55.893325 	55.912283 	56.374570
29.746745 	55.893341 	55.912300 	56.374564
29.746765 	55.893355 	55.912312 	56.374561
29.746782 	55.893358 	55.912313 	56.374551
29.746791 	55.893361 	55.912313 	56.374546
29.746788 	55.893351 	55.912306 	56.374540
29.746793 	55.893348 	55.912304 	56.374534
29.746814 	55.893352 	55.912311 	56.374529
29.746869 	55.893363 	55.912326 	56.374526
29.746943 	55.893382 	55.912344 	56.374546
29.747028 	55.893405 	55.912367 	56.374561
29.747115 	55.893422 	55.912387 	56.374579
29.747193 	55.893440 	55.912406 	56.374593
29.747278 	55.893459 	55.912425 	56.374603
29.747372 	55.893481 	55.912448 	56.374606
29.747478 	55.893495 	55.912468 	56.374600
29.747583 	55.893521 	55.912497 	56.374599
29.747713 	55.893551 	55.912525 	56.374602
19.760610 	53.924983 	53.942066 	54.451194
19.760637 	53.924989 	53.942075 	54.451182
19.760673 	53.925003 	53.942088 	54.451171
19.760691 	53.925016 	53.942102 	54.451180
19.760669 	53.925017 	53.942100 	54.451178
19.760615 	53.925011 	53.942090 	54.451168
19.760540 	53.924991 	53.942071 	54.451153
19.760459 	53.924976 	53.942056 	54.451136
19.760407 	53.924963 	53.942048 	54.451114
19.760406 	53.924958 	53.942045 	54.451098
19.760454 	53.924970 	53.942058 	54.451086
19.760526 	53.924987 	53.942074 	54.451079
19.760572 	53.925001 	53.942085 	54.451072
19.760598 	53.925010 	53.942091 	54.451063
19.760582 	53.925006 	53.942081 	54.451062
19.760542 	53.924993 	53.942069 	54.451050
19.760508 	53.924982 	53.942060 	54.451036
19.760475 	53.924976 	53.942054 	54.451020
19.760486 	53.924978 	53.942058 	54.451007
19.760530 	53.924993 	53.942072 	54.450993
19.760570 	53.925009 	53.942088 	54.450983
19.760604 	53.925019 	53.942098 	54.450966
19.760624 	53.925026 	53.942103 	54.450953
19.760598 	53.925026 	53.942097 	54.450944
19.760545 	53.925008 	53.942079 	54.450932
19.760496 	53.924994 	53.942066 	54.450920
19.760453 	53.924987 	53.942059 	54.450930
19.760442 	53.924983 	53.942054 	54.450931
19.760459 	53.924987 	53.942059 	54.450931
19.760501 	53.925000 	53.942071 	54.450937
19.760553 	53.925007 	53.942080 	54.450947
19.760598 	53.925017 	53.942089 	54.450953
19.760625 	53.925022 	53.942092 	54.450957
19.760646 	53.925023 	53.942095 	54.450963
19.760661 	53.925022 	53.942094 	54.450970
19.760673 	53.925021 	53.942097 	54.450973
19.760689 	53.925023 	53.942100 	54.450972
19.760696 	53.925024 	53.942100 	54.450964
19.760681 	53.925022 	53.942092 	54.450957
19.760646 	53.925013 	53.942084 	54.450935
19.760612 	53.925001 	53.942077 	54.450921
19.760583 	53.924997 	53.942074 	54.450909
19.760581 	53.924995 	53.942073 	54.450904
19.760585 	53.925001 	53.942079 	54.450898
19.760615 	53.925008 	53.942091 	54.450886
19.760657 	53.925025 	53.942106 	54.450877
19.760699 	53.925037 	53.942117 	54.450875
19.760738 	53.925041 	53.942120 	54.450877
19.760746 	53.925042 	53.942118 	54.450877
19.760709 	53.925032 	53.942108 	54.450874
9.775512 	51.950795 	51.966114 	52.408942
9.775508 	51.950796 	51.966117 	52.408940
9.775496 	51.950797 	51.966118 	52.408937
9.775473 	51.950794 	51.966111 	52.408936
9.775448 	51.950782 	51.966102 	52.408942
9.775442 	51.950776 	51.966099 	52.408946
9.775433 	51.950770 	51.966094 	52.408934
9.775416 	51.950771 	51.966094 	52.408919
9.775384 	51.950767 	51.966090 	52.408900
9.775362 	51.950763 	51.966088 	52.408878
9.775345 	51.950762 	51.966085 	52.408849
9.775330 	51.950758 	51.966083 	52.408822
9.775314 	51.950756 	51.966083 	52.408810
9.775305 	51.950756 	51.966083 	52.408808
9.775315 	51.950757 	51.966083 	52.408798
9.775338 	51.950765 	51.966091 	52.408793
9.775375 	51.950766 	51.966092 	52.408795
9.775398 	51.950768 	51.966091 	52.408791
9.775411 	51.950770 	51.966094 	52.408787
9.775425 	51.950773 	51.966098 	52.408789
9.775449 	51.950777 	51.966100 	52.408794
9.775482 	51.950783 	51.966104 	52.408801
9.775534 	51.950791 	51.966113 	52.408808
9.775614 	51.950799 	51.966122 	52.408813
9.775700 	51.950810 	51.966131 	52.408822
9.775783 	51.950823 	51.966143 	52.408824
9.775846 	51.950834 	51.966154 	52.408824
9.775904 	51.950843 	51.966161 	52.408821
9.775952 	51.950852 	51.966171 	52.408821
9.776003 	51.950865 	51.966183 	52.408823
9.776070 	51.950880 	51.966200 	52.408828
9.776143 	51.950896 	51.966214 	52.408831
9.776214 	51.950907 	51.966222 	52.408834
9.776287 	51.950916 	51.966231 	52.408834
9.776351 	51.950929 	51.966244 	52.408828
9.776402 	51.950939 	51.966251 	52.408821
9.776454 	51.950941 	51.966253 	52.408823
9.776511 	51.950942 	51.966256 	52.408831
9.776572 	51.950951 	51.966267 	52.408845
9.776636 	51.950966 	51.966283 	52.408862
9.776713 	51.950985 	51.966301 	52.408883
9.776801 	51.951001 	51.966315 	52.408894
9.776885 	51.951017 	51.966332 	52.408903
9.776966 	51.951031 	51.966347 	52.408909
9.777028 	51.951039 	51.966358 	52.408908
9.777076 	51.951044 	51.966362 	52.408901
9.777124 	51.951054 	51.966375 	52.408892
9.777173 	51.951066 	51.966389 	52.408879
9.777234 	51.951077 	51.966401 	52.408872
9.777293 	51.951086 	51.966413 	52.408872
-0.215060 	49.969279 	49.982890 	50.382613
-0.215192 	49.969260 	49.982868 	50.382586
-0.215332 	49.969232 	49.982840 	50.382552
-0.215465 	49.969198 	49.982809 	50.382519
-0.215574 	49.969170 	49.982789 	50.382469
-0.215643 	49.969166 	49.982786 	50.382420
-0.215680 	49.969163 	49.982785 	50.382378
-0.215699 	49.969160 	49.982782 	50.382356
-0.215725 	49.969158 	49.982778 	50.382337
-0.215754 	49.969150 	49.982770 	50.382316
-0.215798 	49.969142 	49.982761 	50.382302
-0.215839 	49.969130 	49.982753 	50.382289
-0.215879 	49.969123 	49.982744 	50.382277
-0.215901 	49.969116 	49.982739 	50.382270
-0.215891 	49.969115 	49.982742 	50.382256
-0.215862 	49.969120 	49.982749 	50.382233
-0.215824 	49.969137 	49.982765 	50.382206
-0.215782 	49.969151 	49.982778 	50.382185
-0.215738 	49.969162 	49.982790 	50.382163
-0.215702 	49.969170 	49.982797 	50.382152
-0.215664 	49.969181 	49.982805 	50.382144
-0.215602 	49.969190 	49.982816 	50.382131
-0.215517 	49.969201 	49.982829 	50.382128
-0.215402 	49.969219 	49.982848 	50.382132
-0.215267 	49.969247 	49.982877 	50.382130
-0.215121 	49.969281 	49.982911 	50.382128
-0.214992 	49.969309 	49.982938 	50.382116
-0.214889 	49.969332 	49.982959 	50.382118
-0.214817 	49.969345 	49.982970 	50.382133
-0.214763 	49.969354 	49.982977 	50.382138
-0.214705 	49.969359 	49.982981 	50.382151
-0.214616 	49.969368 	49.982994 	50.382165
-0.214497 	49.969388 	49.983016 	50.382178
-0.214379 	49.969417 	49.983047 	50.382197
-0.214258 	49.969447 	49.983070 	50.382226
-0.214139 	49.969465 	49.983090 	50.382264
-0.214032 	49.969482 	49.983108 	50.382304
-0.213936 	49.969500 	49.983125 	50.382326
-0.213832 	49.969516 	49.983141 	50.382341
-0.213743 	49.969534 	49.983158 	50.382373
-0.213659 	49.969547 	49.983170 	50.382400
-0.213584 	49.969559 	49.983181 	50.382429
-0.213510 	49.969573 	49.983195 	50.382448
-0.213439 	49.969581 	49.983202 	50.382466
-0.213384 	49.969594 	49.983210 	50.382481
-0.213326 	49.969603 	49.983221 	50.382508
-0.213259 	49.969609 	49.983226 	50.382549
-0.213189 	49.969621 	49.983237 	50.382591
-0.213104 	49.969637 	49.983253 	50.382619
-0.213021 	49.969658 	49.983273 	50.382644
-10.195505 	47.983465 	47.995431 	48.387338
-10.195459 	47.983475 	47.995443 	48.387366
-10.195408 	47.983485 	47.995454 	48.387393
-10.195376 	47.983489 	47.995455 	48.387415
-10.195357 	47.983493 	47.995457 	48.387438
-10.195349 	47.983492 	47.995455 	48.387453
-10.195351 	47.983488 	47.995452 	48.387473
-10.195351 	47.983481 	47.995445 	48.387477
-10.195345 	47.983476 	47.995441 	48.387484
-10.195332 	47.983474 	47.995441 	48.387488
-10.195319 	47.983478 	47.995442 	48.387492
-10.195314 	47.983479 	47.995442 	48.387487
-10.195310 	47.983478 	47.995441 	48.387470
-10.195315 	47.983477 	47.995437 	48.387463
-10.195310 	47.983477 	47.995438 	48.387444
-10.195289 	47.983475 	47.995435 	48.387410
-10.195261 	47.983475 	47.995436 	48.387375
-10.195242 	47.983480 	47.995441 	48.387345
-10.195229 	47.983487 	47.995445 	48.387329
-10.195224 	47.983488 	47.995445 	48.387317
-10.195241 	47.983484 	47.995437 	48.387306
-10.195258 	47.983471 	47.995425 	48.387295
-10.195275 	47.983460 	47.995417 	48.387271
-10.195282 	47.983456 	47.995411 	48.387256
-10.195267 	47.983456 	47.995413 	48.387243
-10.195242 	47.983463 	47.995416 	48.387242
-10.195217 	47.983471 	47.995423 	48.387242
-10.195184 	47.983481 	47.995432 	48.387254
-10.195155 	47.983488 	47.995436 	48.387259
-10.195152 	47.983490 	47.995436 	48.387243
-10.195162 	47.983489 	47.995434 	48.387226
-10.195182 	47.983488 	47.995430 	48.387208
-10.195213 	47.983483 	47.995428 	48.387194
-10.195229 	47.983484 	47.995429 	48.387186
-10.195240 	47.983483 	47.995430 	48.387181
-10.195242 	47.983488 	47.995434 	48.387175
-10.195239 	47.983493 	47.995440 	48.387155
-10.195233 	47.983499 	47.995448 	48.387154
-10.195227 	47.983504 	47.995452 	48.387156
-10.195219 	47.983507 	47.995455 	48.387153
-10.195194 	47.983507 	47.995460 	48.387139
-10.195161 	47.983514 	47.995468 	48.387129
-10.195127 	47.983524 	47.995478 	48.387136
-10.195090 	47.983530 	47.995483 	48.387134
-10.195080 	47.983528 	47.995481 	48.387136
-10.195102 	47.983525 	47.995474 	48.387153
-10.195145 	47.983517 	47.995465 	48.387172
-10.195206 	47.983502 	47.995449 	48.387178
-10.195281 	47.983486 	47.995434 	48.387177
-10.195355 	47.983472 	47.995417 	48.387173
-20.183723 	45.989719 	46.000029 	46.403338
-20.183367 	45.989792 	46.000099 	46.403421
-20.183051 	45.989858 	46.000164 	46.403506
-20.182788 	45.989912 	46.000215 	46.403586
-20.182580 	45.989955 	46.000255 	46.403668
-20.182391 	45.989990 	46.000288 	46.403741
-20.182230 	45.990021 	46.000319 	46.403804
-20.182099 	45.990050 	46.000349 	46.403857
-20.182002 	45.990080 	46.000375 	46.403900
-20.181954 	45.990099 	46.000387 	46.403937
-20.181940 	45.990099 	46.000383 	46.403974
-20.181952 	45.990095 	46.000380 	46.403990
-20.181958 	45.990096 	46.000377 	46.403990
-20.181948 	45.990094 	46.000376 	46.403987
-20.181907 	45.990095 	46.000383 	46.403988
-20.181846 	45.990108 	46.000398 	46.403995
-20.181769 	45.990125 	46.000414 	46.403999
-20.181713 	45.990130 	46.000416 	46.404008
-20.181680 	45.990129 	46.000416 	46.404020
-20.181679 	45.990125 	46.000408 	46.404030
-20.181696 	45.990115 	46.000399 	46.404030
-20.181733 	45.990105 	46.000390 	46.404033
-20.181769 	45.990095 	46.000379 	46.404045
-20.181798 	45.990085 	46.000371 	46.404057
-20.181817 	45.990083 	46.000369 	46.404071
-20.181843 	45.990080 	46.000365 	46.404072
-20.181891 	45.990073 	46.000357 	46.404070
-20.181961 	45.990059 	46.000341 	46.404064
-20.182038 	45.990045 	46.000326 	46.404058
-20.182103 	45.990029 	46.000312 	46.404046
-20.182158 	45.990014 	46.000297 	46.404032
-20.182192 	45.990007 	46.000294 	46.404022
-20.182218 	45.990004 	46.000294 	46.404016
-20.182247 	45.990003 	46.000291 	46.404004
-20.182276 	45.989996 	46.000283 	46.403989
-20.182338 	45.989986 	46.000270 	46.403975
-20.182434 	45.989968 	46.000250 	46.403966
-20.182541 	45.989940 	46.000220 	46.403961
-20.182647 	45.989912 	46.000193 	46.403957
-20.182735 	45.989882 	46.000168 	46.403955
-20.182805 	45.989865 	46.000155 	46.403947
-20.182850 	45.989854 	46.000147 	46.403951
-20.182899 	45.989845 	46.000141 	46.403969
-20.182949 	45.989836 	46.000131 	46.403987
-20.183015 	45.989823 	46.000117 	46.403993
-20.183075 	45.989808 	46.000102 	46.403995
-20.183135 	45.989794 	46.000087 	46.403995
-20.183172 	45.989786 	46.000081 	46.403991
-20.183205 	45.989783 	46.000075 	46.403978
-20.183215 	45.989781 	46.000074 	46.403965
-30.162080 	43.992116 	44.000716 	44.389367
-30.162261 	43.992084 	44.000687 	44.389382
-30.162476 	43.992050 	44.000651 	44.389391
-30.162742 	43.992008 	44.000607 	44.389394
-30.163043 	43.991954 	44.000552 	44.389391
-30.163374 	43.991893 	44.000490 	44.389384
-30.163707 	43.991827 	44.000424 	44.389369
-30.164021 	43.991760 	44.000360 	44.389348
-30.164305 	43.991702 	44.000302 	44.389322
-30.164544 	43.991647 	44.000252 	44.389289
-30.164754 	43.991607 	44.000216 	44.389261
-30.164925 	43.991573 	44.000185 	44.389236
-30.165067 	43.991550 	44.000162 	44.389214
-30.165184 	43.991526 	44.000137 	44.389189
-30.165286 	43.991506 	44.000119 	44.389167
-30.165344 	43.991491 	44.000107 	44.389151
-30.165367 	43.991488 	44.000105 	44.389137
-30.165332 	43.991492 	44.000114 	44.389127
-30.165242 	43.991511 	44.000137 	44.389118
-30.165112 	43.991545 	44.000173 	44.389109
-30.164964 	43.991572 	44.000202 	44.389100
-30.164828 	43.991597 	44.000225 	44.389094
-30.164689 	43.991620 	44.000251 	44.389088
-30.164562 	43.991645 	44.000277 	44.389091
-30.164448 	43.991673 	44.000305 	44.389094
-30.164352 	43.991695 	44.000327 	44.389102
-30.164299 	43.991706 	44.000337 	44.389113
-30.164266 	43.991708 	44.000339 	44.389118
-30.164275 	43.991701 	44.000331 	44.389117
-30.164311 	43.991691 	44.000315 	44.389110
-30.164364 	43.991672 	44.000296 	44.389105
-30.164438 	43.991654 	44.000275 	44.389106
-30.164511 	43.991630 	44.000250 	44.389113
-30.164576 	43.991610 	44.000230 	44.389119
-30.164623 	43.991597 	44.000216 	44.389125
-30.164646 	43.991588 	44.000211 	44.389127
-30.164641 	43.991588 	44.000213 	44.389129
-30.164604 	43.991596 	44.000221 	44.389130
-30.164539 	43.991609 	44.000236 	44.389133
-30.164461 	43.991626 	44.000252 	44.389144
-30.164353 	43.991649 	44.000278 	44.389157
-30.164214 	43.991678 	44.000309 	44.389173
-30.164052 	43.991711 	44.000344 	44.389190
-30.163867 	43.991754 	44.000387 	44.389209
-30.163668 	43.991791 	44.000428 	44.389226
-30.163497 	43.991832 	44.000467 	44.389242
-30.163352 	43.991863 	44.000494 	44.389256
-30.163280 	43.991882 	44.000508 	44.389265
-30.163296 	43.991875 	44.000492 	44.389276
-30.163389 	43.991846 	44.000457 	44.389287
-40.148238 	41.986812 	41.993777 	42.370343
-40.148226 	41.986817 	41.993780 	42.370367
-40.148218 	41.986817 	41.993778 	42.370386
-40.148216 	41.986819 	41.993784 	42.370401
-40.148219 	41.986825 	41.993789 	42.370413
-40.148215 	41.986823 	41.993785 	42.370421
-40.148217 	41.986816 	41.993780 	42.370430
-40.148221 	41.986815 	41.993781 	42.370438
-40.148223 	41.986816 	41.993781 	42.370451
-40.148230 	41.986817 	41.993781 	42.370464
-40.148235 	41.986818 	41.993782 	42.370476
-40.148230 	41.986825 	41.993786 	42.370485
-40.148229 	41.986822 	41.993783 	42.370494
-40.148236 	41.986820 	41.993777 	42.370502
-40.148265 	41.986811 	41.993769 	42.370509
-40.148299 	41.986798 	41.993758 	42.370514
-40.148331 	41.986787 	41.993747 	42.370517
-40.148364 	41.986769 	41.993733 	42.370519
-40.148396 	41.986764 	41.993725 	42.370523
-40.148419 	41.986758 	41.993719 	42.370526
-40.148444 	41.986755 	41.993714 	42.370528
-40.148461 	41.986746 	41.993706 	42.370531
-40.148494 	41.986740 	41.993701 	42.370530
-40.148515 	41.986737 	41.993697 	42.370528
-40.148553 	41.986727 	41.993684 	42.370523
-40.148604 	41.986712 	41.993675 	42.370518
-40.148684 	41.986690 	41.993652 	42.370512
-40.148791 	41.986666 	41.993627 	42.370508
-40.148929 	41.986638 	41.993594 	42.370499
-40.149079 	41.986611 	41.993564 	42.370492
-40.149252 	41.986578 	41.993525 	42.370485
-40.149429 	41.986534 	41.993481 	42.370479
-40.149602 	41.986491 	41.993441 	42.370475
-40.149751 	41.986454 	41.993404 	42.370470
-40.149874 	41.986418 	41.993373 	42.370464
-40.149972 	41.986394 	41.993352 	42.370458
-40.150037 	41.986382 	41.993341 	42.370452
-40.150075 	41.986370 	41.993332 	42.370441
-40.150095 	41.986366 	41.993330 	42.370424
-40.150096 	41.986372 	41.993340 	42.370407
-40.150076 	41.986379 	41.993347 	42.370393
-40.150054 	41.986382 	41.993352 	42.370382
-40.150018 	41.986397 	41.993364 	42.370372
-40.149967 	41.986410 	41.993379 	42.370365
-40.149897 	41.986429 	41.993402 	42.370364
-40.149798 	41.986450 	41.993420 	42.370366
-40.149698 	41.986473 	41.993445 	42.370372
-40.149584 	41.986501 	41.993469 	42.370382
-40.149474 	41.986519 	41.993491 	42.370396
-40.149370 	41.986537 	41.993507 	42.370411
-50.140069 	39.974119 	39.979440 	40.347172
-50.139879 	39.974165 	39.979487 	40.347174
-50.139686 	39.974216 	39.979539 	40.347177
-50.139501 	39.974265 	39.979586 	40.347184
-50.139368 	39.974307 	39.979624 	40.347195
-50.139286 	39.974333 	39.979649 	40.347207
-50.139242 	39.974341 	39.979655 	40.347219
-50.139246 	39.974336 	39.979649 	40.347229
-50.139296 	39.974335 	39.979644 	40.347238
-50.139379 	39.974323 	39.979625 	40.347248
-50.139463 	39.974302 	39.979602 	40.347257
-50.139531 	39.974282 	39.979586 	40.347264
-50.139569 	39.974263 	39.979567 	40.347271
-50.139586 	39.974258 	39.979558 	40.347279
-50.139574 	39.974251 	39.979554 	40.347285
-50.139561 	39.974253 	39.979558 	40.347290
-50.139508 	39.974266 	39.979571 	40.347294
-50.139424 	39.974280 	39.979581 	40.347299
-50.139333 	39.974299 	39.979597 	40.347302
-50.139267 	39.974317 	39.979618 	40.347305
-50.139249 	39.974333 	39.979630 	40.347310
-50.139283 	39.974336 	39.979638 	40.347316
-50.139366 	39.974325 	39.979623 	40.347321
-50.139524 	39.974294 	39.979590 	40.347327
-50.139731 	39.974248 	39.979540 	40.347330
-50.139970 	39.974192 	39.979482 	40.347331
-50.140196 	39.974134 	39.979425 	40.347329
-50.140404 	39.974088 	39.979383 	40.347324
-50.140574 	39.974054 	39.979353 	40.347317
-50.140692 	39.974033 	39.979333 	40.347310
-50.140770 	39.974009 	39.979312 	40.347305
-50.140773 	39.973996 	39.979305 	40.347302
-50.140713 	39.974029 	39.979332 	40.347298
-50.140588 	39.974069 	39.979372 	40.347294
-50.140386 	39.974112 	39.979417 	40.347290
-50.140124 	39.974167 	39.979472 	40.347289
-50.139827 	39.974228 	39.979529 	40.347290
-50.139540 	39.974290 	39.979584 	40.347294
-50.139278 	39.974335 	39.979627 	40.347301
-50.139076 	39.974372 	39.979659 	40.347309
-50.138959 	39.974398 	39.979679 	40.347320
-50.138930 	39.974411 	39.979682 	40.347330
-50.138998 	39.974402 	39.979670 	40.347339
-50.139128 	39.974371 	39.979639 	40.347346
-50.139294 	39.974337 	39.979608 	40.347353
-50.139457 	39.974296 	39.979568 	40.347354
-50.139624 	39.974251 	39.979523 	40.347352
-50.139768 	39.974216 	39.979492 	40.347349
-50.139855 	39.974184 	39.979460 	40.347342
-50.139874 	39.974171 	39.979451 	40.347334
-60.130351 	37.956064 	37.959718 	38.338141
-60.130308 	37.956065 	37.959722 	38.338158
-60.130230 	37.956073 	37.959733 	38.338175
-60.130144 	37.956078 	37.959738 	38.338192
-60.130080 	37.956083 	37.959744 	38.338210
-60.129978 	37.956091 	37.959750 	38.338227
-60.129859 	37.956091 	37.959752 	38.338244
-60.129771 	37.956101 	37.959764 	38.338262
-60.129694 	37.956112 	37.959775 	38.338282
-60.129639 	37.956121 	37.959784 	38.338302
-60.129554 	37.956134 	37.959798 	38.338323
-60.129442 	37.956153 	37.959817 	38.338345
-60.129332 	37.956171 	37.959831 	38.338367
-60.129225 	37.956183 	37.959844 	38.338389
-60.129108 	37.956198 	37.959860 	38.338413
-60.128987 	37.956215 	37.959877 	38.338436
-60.128849 	37.956232 	37.959897 	38.338460
-60.128736 	37.956256 	37.959921 	38.338487
-60.128614 	37.956278 	37.959948 	38.338513
-60.128511 	37.956310 	37.959980 	38.338541
-60.128410 	37.956335 	37.960001 	38.338567
-60.128277 	37.956350 	37.960015 	38.338595
-60.128060 	37.956368 	37.960035 	38.338624
-60.127898 	37.956396 	37.960064 	38.338654
-60.127775 	37.956425 	37.960096 	38.338682
-60.127667 	37.956441 	37.960116 	38.338710
-60.127618 	37.956453 	37.960131 	38.338735
-60.127587 	37.956461 	37.960139 	38.338763
-60.127541 	37.956473 	37.960150 	38.338790
-60.127505 	37.956488 	37.960169 	38.338816
-60.127504 	37.956498 	37.960180 	38.338842
-60.127524 	37.956505 	37.960186 	38.338868
-60.127582 	37.956510 	37.960189 	38.338893
-60.127641 	37.956511 	37.960188 	38.338919
-60.127725 	37.956509 	37.960184 	38.338944
-60.127801 	37.956506 	37.960183 	38.338969
-60.127871 	37.956516 	37.960191 	38.338996
-60.127897 	37.956517 	37.960191 	38.339021
-60.127904 	37.956516 	37.960192 	38.339046
-60.127900 	37.956519 	37.960197 	38.339070
-60.127899 	37.956510 	37.960187 	38.339094
-60.127889 	37.956495 	37.960174 	38.339117
-60.127885 	37.956488 	37.960173 	38.339140
-60.127874 	37.956491 	37.960176 	38.339163
-60.127894 	37.956492 	37.960178 	38.339185
-60.127930 	37.956490 	37.960174 	38.339208
-60.127982 	37.956474 	37.960158 	38.339230
-60.127991 	37.956460 	37.960147 	38.339249
-60.128016 	37.956464 	37.960151 	38.339268
-60.128059 	37.956462 	37.960148 	38.339285
